; ...\RAW\BT86.raw(Diffrac Plus V1.01 file) converted by XCH V1.0
_FILEVERSION=2
_SAMPLE='BT86'
_USER='Department of Chemistry'
_ATTACHMENTS_CODE=0
_GONIOMETER_RADIUS=200.500000
_FIXED_DIVSLIT=0.150000
_FIXED_SAMPLESLIT=1.000000
_SOLLER_SLITS='Y'
_FIXED_DETSLIT=25.219999
_MONOCHROMATOR=0
; None
_THIN_FILM='N'
_BETA_FILTER='N'
_FIXED_ANTISLIT=12.380000
_ANALYZER_CODE=0
; None
_DATEMEASURED='04-Mar-2010 20:59:14'
_WL_UNIT='A'
_WL1=1.540600
_WL2=1.544390
_WL3=1.392220
_WLRATIO=0.500000
_ANODE='Cu'
; (Data for Range number 1)
_DRIVE='COUPLED'
_STEPTIME=0.500000
_STEPSIZE=0.015592
_STEPMODE='C'
_START=3.000000
_THETA=1.500000
_2THETA=3.000000
_KHI=0.000000
_PHI=0.000000
_X=0.000000
_Y=0.000000
_Z=0.000000
_VARDIVERGENCE='V6'
_ANTISCATTER=0.000000
_DETECTOR=5
_HV=0.000000
_GAIN=0.000000
_LLD=0.000000
_ULD=0.000000
_DETECTORSLIT='unkn'
_AUX1=0.000000
_AUX2=0.000000
_AUX3=0.000000
_TIMESTARTED=17.000000
_TEMP_RATE=-1.000000
_TEMP_DELAY=-1.000000
_KV=45
_MA=40
_RANGE_WL=1.540600
_3DPLANE=0
_GONIOMETER=-0.832000
_PSDCHANNEL0=0
_2THETACOUNTS
3.000	187
3.016	183
3.031	178
3.047	174
3.062	193
3.078	170
3.094	162
3.109	184
3.125	169
3.140	192
3.156	192
3.172	186
3.187	183
3.203	205
3.218	188
3.234	193
3.249	197
3.265	165
3.281	191
3.296	177
3.312	162
3.327	169
3.343	197
3.359	195
3.374	181
3.390	165
3.405	163
3.421	177
3.437	166
3.452	188
3.468	164
3.483	185
3.499	195
3.515	193
3.530	191
3.546	173
3.561	192
3.577	175
3.593	181
3.608	190
3.624	180
3.639	149
3.655	190
3.670	161
3.686	187
3.702	221
3.717	180
3.733	177
3.748	166
3.764	190
3.780	185
3.795	192
3.811	197
3.826	200
3.842	162
3.858	187
3.873	164
3.889	165
3.904	181
3.920	210
3.936	160
3.951	191
3.967	183
3.982	150
3.998	181
4.013	171
4.029	168
4.045	160
4.060	183
4.076	176
4.091	190
4.107	162
4.123	198
4.138	181
4.154	175
4.169	173
4.185	176
4.201	154
4.216	191
4.232	178
4.247	174
4.263	196
4.279	168
4.294	158
4.310	177
4.325	183
4.341	195
4.357	184
4.372	191
4.388	173
4.403	168
4.419	209
4.434	157
4.450	164
4.466	170
4.481	186
4.497	171
4.512	192
4.528	178
4.544	171
4.559	180
4.575	206
4.590	170
4.606	223
4.622	156
4.637	196
4.653	173
4.668	210
4.684	200
4.700	153
4.715	183
4.731	187
4.746	145
4.762	190
4.778	176
4.793	183
4.809	177
4.824	152
4.840	180
4.855	202
4.871	175
4.887	216
4.902	195
4.918	172
4.933	187
4.949	217
4.965	185
4.980	177
4.996	197
5.011	183
5.027	190
5.043	206
5.058	217
5.074	190
5.089	186
5.105	189
5.121	189
5.136	187
5.152	205
5.167	183
5.183	184
5.199	180
5.214	198
5.230	211
5.245	202
5.261	204
5.276	172
5.292	167
5.308	175
5.323	201
5.339	179
5.354	190
5.370	185
5.386	161
5.401	174
5.417	181
5.432	160
5.448	197
5.464	184
5.479	202
5.495	202
5.510	174
5.526	209
5.542	203
5.557	182
5.573	207
5.588	153
5.604	176
5.619	181
5.635	193
5.651	193
5.666	179
5.682	213
5.697	187
5.713	178
5.729	177
5.744	206
5.760	219
5.775	167
5.791	209
5.807	170
5.822	185
5.838	200
5.853	209
5.869	194
5.885	187
5.900	198
5.916	189
5.931	194
5.947	190
5.963	192
5.978	199
5.994	182
6.009	200
6.025	182
6.040	172
6.056	192
6.072	178
6.087	174
6.103	186
6.118	161
6.134	183
6.150	195
6.165	179
6.181	196
6.196	182
6.212	206
6.228	215
6.243	189
6.259	219
6.274	222
6.290	223
6.306	219
6.321	180
6.337	211
6.352	204
6.368	221
6.384	217
6.399	204
6.415	190
6.430	199
6.446	209
6.461	177
6.477	202
6.493	202
6.508	222
6.524	191
6.539	188
6.555	218
6.571	191
6.586	212
6.602	196
6.617	182
6.633	203
6.649	212
6.664	188
6.680	173
6.695	193
6.711	204
6.727	221
6.742	200
6.758	206
6.773	191
6.789	200
6.804	191
6.820	208
6.836	198
6.851	225
6.867	203
6.882	202
6.898	195
6.914	222
6.929	225
6.945	228
6.960	206
6.976	206
6.992	212
7.007	216
7.023	204
7.038	230
7.054	228
7.070	217
7.085	193
7.101	204
7.116	213
7.132	214
7.148	165
7.163	237
7.179	206
7.194	199
7.210	225
7.225	221
7.241	195
7.257	214
7.272	195
7.288	216
7.303	205
7.319	204
7.335	188
7.350	227
7.366	208
7.381	200
7.397	226
7.413	189
7.428	199
7.444	210
7.459	204
7.475	214
7.491	223
7.506	216
7.522	226
7.537	240
7.553	191
7.569	225
7.584	195
7.600	205
7.615	247
7.631	207
7.646	221
7.662	202
7.678	226
7.693	233
7.709	219
7.724	221
7.740	237
7.756	213
7.771	223
7.787	217
7.802	234
7.818	220
7.834	224
7.849	210
7.865	226
7.880	209
7.896	239
7.912	217
7.927	241
7.943	237
7.958	249
7.974	241
7.990	228
8.005	224
8.021	213
8.036	234
8.052	213
8.067	234
8.083	235
8.099	229
8.114	221
8.130	201
8.145	224
8.161	216
8.177	200
8.192	249
8.208	252
8.223	209
8.239	214
8.255	232
8.270	243
8.286	220
8.301	257
8.317	253
8.333	238
8.348	233
8.364	224
8.379	242
8.395	234
8.410	249
8.426	220
8.442	230
8.457	230
8.473	246
8.488	239
8.504	248
8.520	242
8.535	235
8.551	216
8.566	235
8.582	234
8.598	252
8.613	265
8.629	237
8.644	235
8.660	224
8.676	250
8.691	228
8.707	261
8.722	274
8.738	251
8.754	278
8.769	260
8.785	273
8.800	306
8.816	284
8.831	343
8.847	294
8.863	306
8.878	370
8.894	407
8.909	408
8.925	542
8.941	573
8.956	674
8.972	873
8.987	1138
9.003	1551
9.019	2306
9.034	3787
9.050	5640
9.065	5774
9.081	4109
9.097	2462
9.112	1539
9.128	1027
9.143	666
9.159	552
9.175	423
9.190	309
9.206	347
9.221	281
9.237	286
9.252	271
9.268	278
9.284	266
9.299	281
9.315	278
9.330	250
9.346	258
9.362	285
9.377	237
9.393	289
9.408	261
9.424	271
9.440	250
9.455	250
9.471	263
9.486	283
9.502	272
9.518	235
9.533	254
9.549	225
9.564	243
9.580	252
9.596	238
9.611	267
9.627	243
9.642	273
9.658	260
9.673	248
9.689	248
9.705	268
9.720	248
9.736	256
9.751	259
9.767	255
9.783	262
9.798	245
9.814	255
9.829	254
9.845	267
9.861	256
9.876	243
9.892	276
9.907	255
9.923	279
9.939	276
9.954	263
9.970	254
9.985	262
10.00	286
10.02	267
10.03	230
10.05	253
10.06	251
10.08	254
10.09	289
10.11	297
10.13	252
10.14	248
10.16	276
10.17	279
10.19	314
10.20	276
10.22	330
10.23	323
10.25	340
10.27	357
10.28	413
10.30	430
10.31	548
10.33	616
10.34	675
10.36	548
10.38	455
10.39	373
10.41	323
10.42	320
10.44	291
10.45	297
10.47	278
10.48	256
10.50	252
10.52	271
10.53	299
10.55	299
10.56	247
10.58	260
10.59	262
10.61	276
10.62	232
10.64	246
10.66	259
10.67	238
10.69	267
10.70	253
10.72	253
10.73	272
10.75	242
10.76	292
10.78	295
10.80	266
10.81	284
10.83	258
10.84	252
10.86	270
10.87	262
10.89	254
10.91	295
10.92	275
10.94	280
10.95	300
10.97	257
10.98	268
11.00	267
11.01	271
11.03	248
11.05	253
11.06	299
11.08	275
11.09	283
11.11	280
11.12	303
11.14	263
11.15	266
11.17	292
11.19	271
11.20	286
11.22	262
11.23	286
11.25	282
11.26	271
11.28	272
11.30	285
11.31	290
11.33	286
11.34	276
11.36	237
11.37	280
11.39	303
11.40	262
11.42	241
11.44	273
11.45	285
11.47	292
11.48	285
11.50	275
11.51	293
11.53	287
11.54	285
11.56	300
11.58	344
11.59	332
11.61	323
11.62	356
11.64	352
11.65	346
11.67	334
11.68	304
11.70	271
11.72	285
11.73	289
11.75	282
11.76	256
11.78	297
11.79	305
11.81	275
11.83	300
11.84	305
11.86	295
11.87	302
11.89	265
11.90	288
11.92	274
11.93	285
11.95	265
11.97	271
11.98	269
12.00	257
12.01	256
12.03	263
12.04	292
12.06	271
12.07	270
12.09	251
12.11	265
12.12	247
12.14	253
12.15	255
12.17	273
12.18	278
12.20	273
12.21	291
12.23	274
12.25	280
12.26	241
12.28	255
12.29	289
12.31	303
12.32	259
12.34	302
12.36	248
12.37	260
12.39	257
12.40	309
12.42	268
12.43	291
12.45	263
12.46	265
12.48	281
12.50	294
12.51	302
12.53	298
12.54	281
12.56	286
12.57	272
12.59	290
12.60	292
12.62	295
12.64	265
12.65	286
12.67	268
12.68	292
12.70	272
12.71	277
12.73	287
12.75	259
12.76	294
12.78	299
12.79	257
12.81	280
12.82	314
12.84	299
12.85	269
12.87	302
12.89	293
12.90	274
12.92	253
12.93	274
12.95	335
12.96	290
12.98	267
12.99	319
13.01	302
13.03	302
13.04	285
13.06	284
13.07	266
13.09	318
13.10	300
13.12	301
13.13	292
13.15	296
13.17	292
13.18	277
13.20	288
13.21	300
13.23	291
13.24	311
13.26	300
13.28	290
13.29	288
13.31	293
13.32	318
13.34	308
13.35	306
13.37	309
13.38	274
13.40	261
13.42	270
13.43	276
13.45	286
13.46	300
13.48	279
13.49	261
13.51	300
13.52	272
13.54	303
13.56	280
13.57	293
13.59	301
13.60	305
13.62	298
13.63	305
13.65	265
13.67	276
13.68	262
13.70	283
13.71	279
13.73	265
13.74	273
13.76	266
13.77	285
13.79	310
13.81	281
13.82	288
13.84	282
13.85	276
13.87	263
13.88	276
13.90	269
13.91	300
13.93	298
13.95	271
13.96	268
13.98	263
13.99	301
14.01	281
14.02	281
14.04	299
14.05	315
14.07	286
14.09	303
14.10	306
14.12	275
14.13	312
14.15	282
14.16	306
14.18	281
14.20	280
14.21	302
14.23	301
14.24	308
14.26	297
14.27	275
14.29	283
14.30	295
14.32	301
14.34	295
14.35	287
14.37	277
14.38	297
14.40	272
14.41	319
14.43	284
14.44	286
14.46	291
14.48	280
14.49	297
14.51	308
14.52	288
14.54	306
14.55	304
14.57	303
14.59	307
14.60	312
14.62	295
14.63	310
14.65	314
14.66	317
14.68	290
14.69	296
14.71	304
14.73	287
14.74	289
14.76	303
14.77	293
14.79	269
14.80	267
14.82	299
14.83	292
14.85	265
14.87	311
14.88	302
14.90	292
14.91	279
14.93	298
14.94	301
14.96	306
14.97	308
14.99	311
15.01	280
15.02	262
15.04	291
15.05	291
15.07	299
15.08	304
15.10	326
15.12	298
15.13	287
15.15	281
15.16	276
15.18	307
15.19	313
15.21	307
15.22	314
15.24	269
15.26	296
15.27	314
15.29	268
15.30	307
15.32	279
15.33	269
15.35	284
15.36	270
15.38	302
15.40	299
15.41	330
15.43	276
15.44	307
15.46	306
15.47	274
15.49	316
15.50	333
15.52	317
15.54	369
15.55	309
15.57	352
15.58	358
15.60	328
15.61	341
15.63	296
15.65	310
15.66	345
15.68	285
15.69	278
15.71	303
15.72	308
15.74	292
15.75	339
15.77	297
15.79	321
15.80	308
15.82	334
15.83	300
15.85	326
15.86	312
15.88	327
15.89	303
15.91	305
15.93	320
15.94	298
15.96	310
15.97	295
15.99	303
16.00	312
16.02	334
16.04	301
16.05	309
16.07	297
16.08	255
16.10	315
16.11	287
16.13	293
16.14	271
16.16	331
16.18	309
16.19	324
16.21	318
16.22	334
16.24	290
16.25	315
16.27	283
16.28	292
16.30	310
16.32	310
16.33	315
16.35	259
16.36	330
16.38	312
16.39	305
16.41	288
16.42	287
16.44	315
16.46	320
16.47	312
16.49	319
16.50	309
16.52	332
16.53	341
16.55	323
16.57	302
16.58	317
16.60	303
16.61	292
16.63	309
16.64	285
16.66	322
16.67	289
16.69	333
16.71	344
16.72	326
16.74	325
16.75	296
16.77	329
16.78	301
16.80	304
16.81	306
16.83	326
16.85	264
16.86	323
16.88	307
16.89	300
16.91	323
16.92	310
16.94	347
16.96	325
16.97	295
16.99	331
17.00	275
17.02	356
17.03	310
17.05	327
17.06	315
17.08	327
17.10	314
17.11	319
17.13	328
17.14	317
17.16	311
17.17	312
17.19	299
17.20	318
17.22	329
17.24	338
17.25	315
17.27	334
17.28	336
17.30	342
17.31	350
17.33	319
17.34	322
17.36	382
17.38	325
17.39	328
17.41	372
17.42	352
17.44	316
17.45	368
17.47	322
17.49	344
17.50	312
17.52	322
17.53	333
17.55	327
17.56	309
17.58	328
17.59	339
17.61	309
17.63	315
17.64	349
17.66	319
17.67	316
17.69	336
17.70	307
17.72	308
17.73	307
17.75	352
17.77	327
17.78	363
17.80	314
17.81	383
17.83	351
17.84	325
17.86	335
17.87	333
17.89	332
17.91	329
17.92	357
17.94	346
17.95	317
17.97	339
17.98	324
18.00	326
18.02	339
18.03	333
18.05	357
18.06	415
18.08	422
18.09	510
18.11	625
18.12	692
18.14	570
18.16	418
18.17	400
18.19	345
18.20	359
18.22	335
18.23	306
18.25	341
18.26	320
18.28	360
18.30	380
18.31	345
18.33	357
18.34	356
18.36	358
18.37	321
18.39	344
18.41	343
18.42	328
18.44	364
18.45	315
18.47	348
18.48	359
18.50	334
18.51	326
18.53	342
18.55	342
18.56	374
18.58	340
18.59	362
18.61	357
18.62	331
18.64	371
18.65	360
18.67	354
18.69	357
18.70	328
18.72	349
18.73	384
18.75	343
18.76	350
18.78	356
18.79	338
18.81	339
18.83	352
18.84	364
18.86	382
18.87	336
18.89	313
18.90	347
18.92	343
18.94	379
18.95	392
18.97	407
18.98	376
19.00	339
19.01	357
19.03	361
19.04	361
19.06	327
19.08	378
19.09	348
19.11	357
19.12	354
19.14	365
19.15	352
19.17	354
19.18	381
19.20	387
19.22	400
19.23	380
19.25	365
19.26	424
19.28	375
19.29	402
19.31	389
19.33	384
19.34	379
19.36	378
19.37	370
19.39	414
19.40	400
19.42	405
19.43	460
19.45	490
19.47	481
19.48	587
19.50	798
19.51	869
19.53	1210
19.54	1737
19.56	2203
19.57	3087
19.59	3780
19.61	4051
19.62	3758
19.64	2940
19.65	2029
19.67	1476
19.68	1121
19.70	987
19.71	1168
19.73	1386
19.75	1837
19.76	2379
19.78	3104
19.79	3695
19.81	3694
19.82	3185
19.84	2279
19.86	1520
19.87	971
19.89	764
19.90	629
19.92	548
19.93	475
19.95	493
19.96	441
19.98	419
20.00	448
20.01	435
20.03	410
20.04	464
20.06	426
20.07	460
20.09	513
20.10	580
20.12	541
20.14	634
20.15	701
20.17	869
20.18	1191
20.20	1444
20.21	1727
20.23	2011
20.24	1764
20.26	1407
20.28	1048
20.29	807
20.31	637
20.32	523
20.34	516
20.35	440
20.37	448
20.39	410
20.40	416
20.42	391
20.43	421
20.45	441
20.46	454
20.48	409
20.49	394
20.51	421
20.53	405
20.54	413
20.56	381
20.57	413
20.59	440
20.60	428
20.62	457
20.63	533
20.65	577
20.67	736
20.68	915
20.70	1148
20.71	1109
20.73	963
20.74	696
20.76	591
20.78	512
20.79	461
20.81	474
20.82	423
20.84	459
20.85	468
20.87	529
20.88	561
20.90	676
20.92	719
20.93	785
20.95	755
20.96	624
20.98	596
20.99	543
21.01	447
21.02	475
21.04	437
21.06	425
21.07	375
21.09	404
21.10	416
21.12	408
21.13	413
21.15	395
21.16	410
21.18	360
21.20	396
21.21	365
21.23	389
21.24	408
21.26	337
21.27	415
21.29	401
21.31	396
21.32	392
21.34	375
21.35	394
21.37	421
21.38	380
21.40	407
21.41	440
21.43	385
21.45	392
21.46	397
21.48	367
21.49	408
21.51	385
21.52	400
21.54	429
21.55	362
21.57	438
21.59	399
21.60	404
21.62	434
21.63	402
21.65	389
21.66	413
21.68	426
21.70	434
21.71	428
21.73	417
21.74	419
21.76	394
21.77	377
21.79	419
21.80	387
21.82	349
21.84	411
21.85	421
21.87	420
21.88	388
21.90	424
21.91	430
21.93	404
21.94	437
21.96	392
21.98	407
21.99	447
22.01	413
22.02	440
22.04	409
22.05	396
22.07	433
22.08	412
22.10	419
22.12	419
22.13	420
22.15	442
22.16	443
22.18	406
22.19	421
22.21	407
22.23	417
22.24	415
22.26	410
22.27	424
22.29	390
22.30	443
22.32	411
22.33	389
22.35	410
22.37	378
22.38	396
22.40	427
22.41	449
22.43	439
22.44	418
22.46	439
22.47	426
22.49	442
22.51	433
22.52	444
22.54	426
22.55	384
22.57	392
22.58	433
22.60	381
22.61	407
22.63	417
22.65	450
22.66	415
22.68	420
22.69	408
22.71	408
22.72	412
22.74	406
22.76	402
22.77	432
22.79	410
22.80	425
22.82	424
22.83	418
22.85	418
22.86	416
22.88	403
22.90	434
22.91	420
22.93	420
22.94	439
22.96	410
22.97	440
22.99	438
23.00	396
23.02	457
23.04	415
23.05	447
23.07	408
23.08	412
23.10	434
23.11	402
23.13	446
23.15	458
23.16	442
23.18	419
23.19	437
23.21	426
23.22	450
23.24	477
23.25	464
23.27	444
23.29	501
23.30	549
23.32	572
23.33	678
23.35	739
23.36	782
23.38	867
23.39	805
23.41	692
23.43	647
23.44	587
23.46	469
23.47	430
23.49	452
23.50	448
23.52	421
23.53	429
23.55	390
23.57	457
23.58	414
23.60	413
23.61	405
23.63	449
23.64	401
23.66	440
23.68	415
23.69	429
23.71	457
23.72	464
23.74	443
23.75	409
23.77	428
23.78	443
23.80	441
23.82	430
23.83	415
23.85	423
23.86	405
23.88	395
23.89	450
23.91	410
23.92	456
23.94	407
23.96	434
23.97	425
23.99	419
24.00	439
24.02	447
24.03	417
24.05	405
24.07	431
24.08	448
24.10	410
24.11	452
24.13	428
24.14	431
24.16	441
24.17	451
24.19	466
24.21	409
24.22	455
24.24	383
24.25	441
24.27	438
24.28	436
24.30	402
24.31	432
24.33	425
24.35	443
24.36	430
24.38	483
24.39	414
24.41	451
24.42	428
24.44	380
24.45	431
24.47	386
24.49	435
24.50	408
24.52	462
24.53	436
24.55	471
24.56	448
24.58	468
24.60	512
24.61	575
24.63	511
24.64	582
24.66	559
24.67	535
24.69	473
24.70	494
24.72	486
24.74	438
24.75	437
24.77	443
24.78	421
24.80	421
24.81	425
24.83	458
24.84	457
24.86	450
24.88	452
24.89	498
24.91	496
24.92	519
24.94	466
24.95	485
24.97	470
24.99	417
25.00	442
25.02	419
25.03	413
25.05	424
25.06	417
25.08	455
25.09	389
25.11	404
25.13	438
25.14	420
25.16	448
25.17	424
25.19	415
25.20	443
25.22	410
25.23	457
25.25	443
25.27	498
25.28	476
25.30	405
25.31	429
25.33	419
25.34	442
25.36	430
25.37	426
25.39	434
25.41	420
25.42	421
25.44	421
25.45	453
25.47	419
25.48	464
25.50	441
25.52	432
25.53	442
25.55	420
25.56	413
25.58	401
25.59	466
25.61	392
25.62	425
25.64	403
25.66	436
25.67	467
25.69	450
25.70	452
25.72	415
25.73	448
25.75	440
25.76	424
25.78	378
25.80	436
25.81	411
25.83	431
25.84	443
25.86	462
25.87	451
25.89	467
25.90	460
25.92	399
25.94	469
25.95	417
25.97	404
25.98	418
26.00	459
26.01	441
26.03	434
26.05	454
26.06	414
26.08	436
26.09	420
26.11	425
26.12	481
26.14	459
26.15	477
26.17	494
26.19	560
26.20	623
26.22	760
26.23	972
26.25	1198
26.26	1465
26.28	1585
26.29	1402
26.31	1020
26.33	816
26.34	654
26.36	532
26.37	514
26.39	494
26.40	511
26.42	445
26.44	466
26.45	421
26.47	427
26.48	396
26.50	391
26.51	433
26.53	425
26.54	428
26.56	451
26.58	427
26.59	434
26.61	432
26.62	434
26.64	481
26.65	492
26.67	543
26.68	675
26.70	883
26.72	1221
26.73	1354
26.75	1750
26.76	1863
26.78	1712
26.79	1431
26.81	1066
26.82	793
26.84	677
26.86	545
26.87	473
26.89	432
26.90	477
26.92	457
26.93	476
26.95	450
26.97	474
26.98	402
27.00	458
27.01	483
27.03	530
27.04	531
27.06	669
27.07	742
27.09	977
27.11	1190
27.12	1346
27.14	1336
27.15	1197
27.17	979
27.18	761
27.20	637
27.21	586
27.23	695
27.25	845
27.26	1293
27.28	1779
27.29	2443
27.31	2188
27.32	1426
27.34	886
27.36	627
27.37	562
27.39	495
27.40	508
27.42	457
27.43	473
27.45	468
27.46	458
27.48	429
27.50	419
27.51	416
27.53	395
27.54	420
27.56	452
27.57	435
27.59	384
27.60	468
27.62	417
27.64	439
27.65	414
27.67	396
27.68	395
27.70	393
27.71	405
27.73	433
27.74	420
27.76	442
27.78	405
27.79	441
27.81	398
27.82	393
27.84	415
27.85	406
27.87	380
27.89	477
27.90	401
27.92	407
27.93	422
27.95	450
27.96	403
27.98	387
27.99	413
28.01	395
28.03	423
28.04	448
28.06	446
28.07	442
28.09	443
28.10	434
28.12	416
28.13	406
28.15	428
28.17	406
28.18	426
28.20	402
28.21	404
28.23	382
28.24	426
28.26	384
28.27	405
28.29	438
28.31	398
28.32	410
28.34	426
28.35	433
28.37	389
28.38	404
28.40	433
28.42	372
28.43	378
28.45	390
28.46	384
28.48	412
28.49	391
28.51	365
28.52	434
28.54	445
28.56	383
28.57	388
28.59	407
28.60	423
28.62	374
28.63	380
28.65	417
28.66	425
28.68	390
28.70	377
28.71	376
28.73	405
28.74	419
28.76	421
28.77	432
28.79	444
28.81	375
28.82	394
28.84	397
28.85	385
28.87	446
28.88	414
28.90	398
28.91	416
28.93	401
28.95	417
28.96	407
28.98	433
28.99	403
29.01	399
29.02	409
29.04	389
29.05	385
29.07	401
29.09	413
29.10	428
29.12	407
29.13	426
29.15	444
29.16	457
29.18	503
29.19	598
29.21	639
29.23	772
29.24	852
29.26	833
29.27	722
29.29	633
29.30	546
29.32	442
29.34	430
29.35	414
29.37	462
29.38	415
29.40	421
29.41	391
29.43	409
29.44	420
29.46	411
29.48	402
29.49	449
29.51	475
29.52	449
29.54	467
29.55	451
29.57	430
29.58	435
29.60	461
29.62	415
29.63	387
29.65	396
29.66	387
29.68	371
29.69	389
29.71	370
29.73	341
29.74	388
29.76	405
29.77	360
29.79	395
29.80	394
29.82	418
29.83	436
29.85	482
29.87	543
29.88	682
29.90	757
29.91	891
29.93	976
29.94	909
29.96	700
29.97	623
29.99	532
30.01	497
30.02	440
30.04	394
30.05	402
30.07	407
30.08	432
30.10	391
30.11	433
30.13	399
30.15	380
30.16	409
30.18	373
30.19	411
30.21	384
30.22	392
30.24	412
30.26	383
30.27	389
30.29	377
30.30	377
30.32	408
30.33	379
30.35	350
30.36	420
30.38	398
30.40	416
30.41	383
30.43	400
30.44	381
30.46	371
30.47	394
30.49	437
30.50	425
30.52	436
30.54	394
30.55	401
30.57	364
30.58	395
30.60	385
30.61	406
30.63	405
30.64	415
30.66	373
30.68	378
30.69	374
30.71	364
30.72	382
30.74	378
30.75	370
30.77	397
30.79	361
30.80	399
30.82	372
30.83	385
30.85	397
30.86	392
30.88	382
30.89	385
30.91	400
30.93	346
30.94	385
30.96	405
30.97	404
30.99	409
31.00	367
31.02	389
31.03	387
31.05	360
31.07	376
31.08	374
31.10	368
31.11	366
31.13	389
31.14	398
31.16	388
31.18	418
31.19	470
31.21	499
31.22	632
31.24	682
31.25	728
31.27	609
31.28	523
31.30	475
31.32	388
31.33	428
31.35	486
31.36	464
31.38	471
31.39	468
31.41	464
31.42	403
31.44	416
31.46	364
31.47	411
31.49	378
31.50	358
31.52	390
31.53	406
31.55	372
31.56	387
31.58	424
31.60	448
31.61	446
31.63	508
31.64	609
31.66	557
31.67	514
31.69	533
31.71	462
31.72	460
31.74	477
31.75	567
31.77	588
31.78	643
31.80	553
31.81	549
31.83	480
31.85	458
31.86	397
31.88	420
31.89	413
31.91	403
31.92	432
31.94	464
31.95	517
31.97	483
31.99	494
32.00	405
32.02	411
32.03	358
32.05	395
32.06	401
32.08	370
32.10	368
32.11	376
32.13	352
32.14	351
32.16	378
32.17	378
32.19	338
32.20	345
32.22	384
32.24	352
32.25	375
32.27	378
32.28	369
32.30	366
32.31	344
32.33	396
32.34	401
32.36	345
32.38	387
32.39	352
32.41	353
32.42	375
32.44	398
32.45	423
32.47	475
32.48	531
32.50	574
32.52	627
32.53	605
32.55	541
32.56	456
32.58	401
32.59	385
32.61	367
32.63	375
32.64	365
32.66	350
32.67	378
32.69	324
32.70	355
32.72	368
32.73	342
32.75	358
32.77	342
32.78	364
32.80	366
32.81	368
32.83	351
32.84	357
32.86	362
32.87	374
32.89	340
32.91	363
32.92	317
32.94	317
32.95	325
32.97	346
32.98	368
33.00	325
33.01	349
33.03	358
33.05	353
33.06	356
33.08	380
33.09	330
33.11	349
33.12	334
33.14	328
33.16	346
33.17	312
33.19	314
33.20	355
33.22	342
33.23	331
33.25	347
33.26	333
33.28	314
33.30	357
33.31	366
33.33	331
33.34	327
33.36	320
33.37	318
33.39	340
33.40	331
33.42	339
33.44	340
33.45	325
33.47	341
33.48	325
33.50	341
33.51	316
33.53	309
33.55	328
33.56	342
33.58	340
33.59	331
33.61	329
33.62	366
33.64	330
33.65	377
33.67	336
33.69	356
33.70	330
33.72	341
33.73	327
33.75	317
33.76	304
33.78	334
33.79	364
33.81	344
33.83	315
33.84	344
33.86	312
33.87	298
33.89	299
33.90	329
33.92	332
33.93	318
33.95	317
33.97	335
33.98	352
34.00	326
34.01	332
34.03	320
34.04	320
34.06	322
34.08	324
34.09	380
34.11	369
34.12	387
34.14	459
34.15	537
34.17	613
34.18	720
34.20	769
34.22	705
34.23	611
34.25	502
34.26	382
34.28	371
34.29	388
34.31	363
34.32	344
34.34	302
34.36	352
34.37	301
34.39	327
34.40	361
34.42	316
34.43	297
34.45	335
34.47	345
34.48	317
34.50	299
34.51	317
34.53	315
34.54	357
34.56	324
34.57	317
34.59	304
34.61	332
34.62	278
34.64	326
34.65	350
34.67	372
34.68	388
34.70	481
34.71	474
34.73	553
34.75	523
34.76	536
34.78	465
34.79	506
34.81	419
34.82	361
34.84	370
34.85	337
34.87	335
34.89	330
34.90	314
34.92	337
34.93	310
34.95	330
34.96	313
34.98	346
35.00	337
35.01	365
35.03	402
35.04	477
35.06	597
35.07	675
35.09	614
35.10	612
35.12	497
35.14	420
35.15	363
35.17	363
35.18	353
35.20	320
35.21	327
35.23	297
35.24	346
35.26	324
35.28	301
35.29	313
35.31	323
35.32	317
35.34	344
35.35	289
35.37	279
35.38	321
35.40	328
35.42	309
35.43	320
35.45	299
35.46	331
35.48	325
35.49	322
35.51	306
35.53	344
35.54	324
35.56	311
35.57	290
35.59	287
35.60	311
35.62	328
35.63	316
35.65	280
35.67	301
35.68	298
35.70	280
35.71	314
35.73	301
35.74	303
35.76	272
35.77	319
35.79	294
35.81	287
35.82	305
35.84	302
35.85	311
35.87	326
35.88	341
35.90	352
35.92	436
35.93	524
35.95	593
35.96	557
35.98	498
35.99	462
36.01	365
36.02	333
36.04	306
36.06	311
36.07	293
36.09	302
36.10	267
36.12	310
36.13	298
36.15	271
36.16	307
36.18	294
36.20	273
36.21	291
36.23	296
36.24	298
36.26	301
36.27	282
36.29	302
36.30	296
36.32	302
36.34	290
36.35	295
36.37	318
36.38	282
36.40	297
36.41	277
36.43	293
36.45	268
36.46	291
36.48	269
36.49	299
36.51	255
36.52	281
36.54	293
36.55	288
36.57	305
36.59	286
36.60	272
36.62	298
36.63	318
36.65	335
36.66	303
36.68	316
36.69	289
36.71	299
36.73	269
36.74	275
36.76	268
36.77	264
36.79	286
36.80	286
36.82	270
36.84	262
36.85	337
36.87	271
36.88	273
36.90	263
36.91	272
36.93	259
36.94	267
36.96	275
36.98	272
36.99	307
37.01	245
37.02	259
37.04	279
37.05	265
37.07	293
37.08	313
37.10	279
37.12	270
37.13	246
37.15	283
37.16	261
37.18	263
37.19	246
37.21	286
37.22	239
37.24	286
37.26	268
37.27	263
37.29	271
37.30	275
37.32	246
37.33	301
37.35	276
37.37	298
37.38	258
37.40	247
37.41	261
37.43	258
37.44	243
37.46	291
37.47	287
37.49	244
37.51	251
37.52	254
37.54	256
37.55	286
37.57	274
37.58	295
37.60	269
37.61	275
37.63	267
37.65	274
37.66	300
37.68	300
37.69	282
37.71	276
37.72	249
37.74	251
37.76	270
37.77	296
37.79	255
37.80	253
37.82	250
37.83	266
37.85	263
37.86	256
37.88	271
37.90	240
37.91	263
37.93	271
37.94	256
37.96	250
37.97	242
37.99	277
38.00	255
38.02	271
38.04	256
38.05	248
38.07	267
38.08	249
38.10	280
38.11	263
38.13	217
38.14	266
38.16	279
38.18	267
38.19	266
38.21	254
38.22	264
38.24	260
38.25	275
38.27	261
38.29	222
38.30	228
38.32	252
38.33	259
38.35	271
38.36	261
38.38	252
38.39	257
38.41	261
38.43	260
38.44	233
38.46	285
38.47	244
38.49	277
38.50	283
38.52	291
38.53	285
38.55	311
38.57	274
38.58	271
38.60	256
38.61	255
38.63	273
38.64	255
38.66	238
38.67	241
38.69	280
38.71	236
38.72	245
38.74	264
38.75	247
38.77	253
38.78	257
38.80	240
38.82	255
38.83	237
38.85	245
38.86	250
38.88	231
38.89	246
38.91	253
38.92	240
38.94	273
38.96	244
38.97	249
38.99	253
39.00	252
39.02	234
39.03	226
39.05	264
39.06	226
39.08	279
39.10	259
39.11	255
39.13	243
39.14	245
39.16	248
39.17	277
39.19	267
39.21	251
39.22	257
39.24	264
39.25	261
39.27	252
39.28	248
39.30	269
39.31	292
39.33	285
39.35	292
39.36	330
39.38	345
39.39	350
39.41	335
39.42	317
39.44	302
39.45	300
39.47	272
39.49	249
39.50	267
39.52	256
39.53	292
39.55	244
39.56	267
39.58	253
39.59	245
39.61	249
39.63	280
39.64	250
39.66	237
39.67	280
39.69	265
39.70	247
39.72	296
39.74	270
39.75	296
39.77	304
39.78	292
39.80	291
39.81	269
39.83	270
39.84	249
39.86	255
39.88	261
39.89	263
39.91	253
39.92	253
39.94	267
39.95	245
39.97	242
39.98	231
40.00	269
